#Task    Step    numberOfAcceptedPeleSteps    currentEnergy    S-lig    S-H    D-H    Binding Energy    sasaLig    
1    0    0    -7487.96    5.69829    2.38696    1.8777    -25.3549    0.414831    
1    1    1    -8654.43    8.28256    3.46145    1.77201    -25.3662    0.415298    
1    2    2    -8658.91    7.70105    3.54902    1.87454    -23.0861    0.406338    
1    4    3    -8662.74    8.08506    4.14946    1.86874    -21.7163    0.418249    
1    5    4    -8673.44    5.9337    4.47722    1.7517    -25.4839    0.324535    
1    7    5    -8673.21    8.44836    4.26173    1.75435    -23.2868    0.314586    
1    9    6    -8675.53    8.22612    4.03497    1.76783    -18.7576    0.386465    
1    16    7    -8677.74    7.28403    3.78769    1.77002    -17.8692    0.360038    
1    18    8    -8678.46    5.94431    3.52499    1.74718    -18.8011    0.36603    
1    20    9    -8682.44    5.24075    3.58293    1.75233    -19.9704    0.352898    
1    21    10    -8687.58    4.83842    3.6188    1.7845    -20.2891    0.366659    
1    22    11    -8689.16    4.81296    3.76601    1.81772    -20.165    0.341827    
1    24    12    -8689.42    4.66655    3.69242    1.8231    -21.7829    0.332569    
1    25    13    -8693.13    5.2243    3.65591    1.78349    -22.74    0.336939    
1    26    14    -8693.07    6.25066    3.74553    1.8084    -21.1823    0.317475    
1    28    15    -8699.72    5.25275    3.66604    1.78511    -23.5156    0.333555    
1    30    16    -8698.59    4.96818    3.62172    1.79432    -21.9243    0.325152    
1    32    17    -8697.57    5.50214    3.60603    1.78872    -19.6233    0.350986    
1    34    18    -8696.5    7.36318    3.85123    1.80183    -20.9937    0.364779    
1    35    19    -8705.86    8.1794    3.70425    1.76181    -22.7461    0.35969    
1    38    20    -8709.78    9.12448    3.72261    1.75552    -21.4062    0.376368    
1    45    21    -8708.28    8.39463    3.73901    1.77385    -24.5005    0.36443    
1    57    22    -8703.98    7.68731    3.71572    1.7611    -23.1037    0.387883    
1    60    23    -8705.47    7.82751    3.68947    1.75983    -21.227    0.407084    
1    65    24    -8708.88    8.09379    3.70119    1.74655    -22.966    0.383114    
1    70    25    -8706.15    9.88313    3.7843    1.7647    -18.1156    0.412156    
1    73    26    -8708.98    5.34997    3.81046    1.74291    -23.8868    0.381481    
1    75    27    -8703.16    11.0558    3.80538    1.73946    -16.6367    0.516648    
1    76    28    -8702.23    11.7084    3.82429    1.73633    -13.677    0.562921    
1    78    29    -8704.64    12.9458    3.84677    1.73683    -12.1517    0.585398    
1    83    30    -8701.85    13.6784    3.91733    1.74831    -8.16201    0.51453    
1    85    31    -8708.07    13.8399    3.93386    1.7476    -16.409    0.46253    
1    86    32    -8712.4    13.9065    3.92589    1.74709    -18.1126    0.447354    
1    88    33    -8712.27    13.8647    3.82289    1.74295    -19.572    0.466674    
1    89    34    -8711.31    13.1815    3.77734    1.76142    -20.3067    0.467262    
1    92    35    -8713.31    12.2108    3.75888    1.75046    -20.9385    0.463223    
1    93    36    -8709.03    10.8486    3.76352    1.81187    -16.5704    0.463212    
1    94    37    -8713.98    11.1232    3.73341    1.78319    -19.0806    0.484791    
1    95    38    -8713.2    11.9342    3.72362    1.77182    -16.3768    0.496178    
1    96    39    -8713.6    13.0037    3.71963    1.75331    -13.411    0.535805    
1    99    40    -8714.03    9.83426    3.72295    1.7365    -18.797    0.437557    
1    101    41    -8713.44    11.2929    3.76682    1.71825    -16.8647    0.488752    
1    102    42    -8714.95    11.5263    3.75395    1.73143    -14.6749    0.509303    
1    103    43    -8715.58    13.4235    3.75518    1.71877    -16.2167    0.511106    
1    106    44    -8719.89    11.5669    3.77311    1.72716    -21.6594    0.421598    
1    108    45    -8724.73    10.4485    3.75402    1.719    -25.8854    0.396802    
1    118    46    -8723.08    11.1017    3.75677    1.72623    -23.3152    0.431312    
1    121    47    -8725.44    11.0327    3.96401    1.74064    -24.2794    0.419585    
1    124    48    -8724.19    10.0115    3.89105    1.73731    -25.5371    0.408783    
1    125    49    -8724.92    9.83629    4.01124    1.7317    -26.172    0.419545    
1    126    50    -8728.51    9.64193    4.00099    1.7289    -27.325    0.437157    
1    140    51    -8723.47    9.31222    3.96583    1.70787    -22.5075    0.45642    
1    142    52    -8723.77    9.82948    3.98446    1.72371    -23.1218    0.450073    
1    145    53    -8728.07    9.94519    3.96135    1.72571    -27.0771    0.422248    
1    146    54    -8726.07    9.24783    3.97043    1.70909    -28.1324    0.354545    
1    149    55    -8725.58    9.47301    3.88001    1.72475    -28.7439    0.414879    
1    150    56    -8730.24    9.32963    3.80667    1.7299    -29.7361    0.387059    
1    154    57    -8725.89    8.59479    3.7584    1.73509    -30.4833    0.335956    
1    160    58    -8728.75    9.44462    3.76361    1.71708    -29.5654    0.396348    
1    164    59    -8727.44    9.43518    3.76922    1.73303    -28.7998    0.39774    
1    166    60    -8727.39    9.35712    3.7788    1.72535    -28.595    0.372513    
1    169    61    -8733.33    9.31908    3.81302    1.72301    -28.5053    0.406203    
1    174    62    -8731.64    8.57025    3.8209    1.74    -28.0217    0.369874    
1    182    63    -8731.35    9.40828    3.86226    1.72339    -24.3973    0.389114    
1    184    64    -8729.08    10.235    3.92067    1.7601    -22.1775    0.441672    
1    185    65    -8731.12    10.28    3.91364    1.73964    -25.1058    0.425965    
1    188    66    -8728.61    10.2061    3.81866    1.72752    -24.8844    0.388978    
1    190    67    -8731.32    9.94906    3.72426    1.72143    -29.2583    0.386689    
1    201    68    -8728.15    11.0862    3.76415    1.72715    -24.9903    0.412244    
1    204    69    -8726.14    12.1051    3.83538    1.73326    -17.719    0.482365    
1    209    70    -8726.03    10.2348    3.7216    1.70896    -23.2622    0.459582    
1    216    71    -8728.99    10.1514    3.69709    1.71107    -23.2256    0.483335    
1    217    72    -8731.97    9.74464    3.72449    1.71099    -25.1806    0.424592    
1    221    73    -8734.27    9.67396    3.67083    1.74794    -27.4402    0.406461    
1    226    74    -8732.89    10.6793    3.80405    1.71785    -25.1471    0.380587    
1    228    75    -8735.23    10.6382    3.79383    1.71724    -27.1547    0.391381    
1    232    76    -8738.1    9.77974    3.67806    1.66805    -28.7892    0.400414    
1    238    77    -8737.55    10.6989    3.70567    1.72025    -26.7885    0.398919    
1    265    78    -8731.39    9.36612    3.62245    1.70125    -22.3934    0.445281    
1    268    79    -8730.7    8.31516    3.51596    1.70323    -23.2131    0.419279    
1    273    80    -8731.36    10.361    3.58548    1.71707    -24.4382    0.420284    
1    274    81    -8735.68    7.94339    3.68291    1.73189    -27.0512    0.37514    
1    279    82    -8730.19    6.76855    3.72069    1.72304    -18.6057    0.468239    
1    280    83    -8732.62    6.24531    3.95167    1.74378    -20.1049    0.445798    
1    282    84    -8730.04    6.49084    3.93526    1.74123    -17.8957    0.467147    
1    283    85    -8726.88    7.59531    3.94123    1.73559    -14.6997    0.50232    
1    285    86    -8727.8    6.91475    3.9635    1.74862    -15.4026    0.511486    
1    286    87    -8726.38    7.25739    3.92769    1.72455    -14.7587    0.456813    
1    288    88    -8734.07    7.756    3.89457    1.74961    -24.0074    0.401233    
1    289    89    -8735.19    7.86348    4.00757    1.75325    -25.3515    0.397989    
1    290    90    -8736.61    7.72618    3.9167    1.76526    -26.5388    0.381657    
1    294    91    -8734.43    8.54511    3.98984    1.78433    -22.742    0.41706    
1    296    92    -8732.3    8.72185    4.0777    1.76789    -20.2622    0.436929    
1    297    93    -8726.83    7.54114    4.03376    1.75186    -16.4681    0.467149    
1    298    94    -8728.81    8.24407    4.11276    1.75641    -16.2798    0.472917    
1    299    95    -8729.29    8.42533    4.01265    1.74502    -17.2958    0.45908    
1    301    96    -8729.6    8.43699    4.06635    1.7499    -15.6508    0.507068    
1    305    97    -8727.54    8.62914    3.9101    1.71806    -15.9428    0.479299    
1    306    98    -8728.22    9.46203    3.89327    1.73004    -15.1872    0.469307    
1    307    99    -8727.08    12.7994    3.90597    1.72916    -11.4321    0.555532    
1    308    100    -8725.93    13.8653    3.91914    1.73472    -10.1426    0.600422    
1    309    101    -8724.78    14.3331    3.95629    1.7359    -9.89854    0.605339    
1    311    102    -8726.16    14.6341    3.95404    1.73693    -11.515    0.57133    
1    312    103    -8725.03    15.2711    3.94871    1.73463    -10.7652    0.567884    
1    313    104    -8725.1    15.0203    3.92699    1.73643    -10.0498    0.590083    
1    314    105    -8724.44    16.1024    3.91807    1.7348    -6.16579    0.633748    
1    315    106    -8726.55    16.1018    3.91895    1.72974    -10.7094    0.584978    
1    316    107    -8728.22    15.3189    3.90064    1.73219    -14.1241    0.550102    
1    320    108    -8728.47    16.1321    3.88864    1.73297    -12.8081    0.564046    
1    321    109    -8726.42    16.4573    4.03608    1.7447    -15.5683    0.539996    
1    322    110    -8728.42    15.9029    4.03298    1.74321    -16.2431    0.462947    
1    334    111    -8725.88    16.5051    4.03333    1.74287    -13.6933    0.529234    
1    335    112    -8720.19    17.1465    4.02526    1.74362    -12.4078    0.58416    
1    336    113    -8722.66    17.9965    3.99899    1.74315    -12.0091    0.612611    
1    338    114    -8723.13    17.4527    3.97219    1.74051    -12.9862    0.565098    
1    340    115    -8725.23    17.7326    3.92209    1.74007    -13.1761    0.60692    
1    341    116    -8724.29    18.5731    3.8937    1.73685    -9.89229    0.634087    
1    343    117    -8724.6    18.1383    3.87782    1.73711    -11.5191    0.616807    
1    344    118    -8724.84    18.3599    3.85381    1.73538    -13.4534    0.577478    
1    348    119    -8723.06    17.7808    3.8192    1.73194    -12.9571    0.571046    
1    349    120    -8723.83    18.8483    3.81239    1.72754    -12.5972    0.587457    
1    350    121    -8723.44    18.3542    3.83961    1.72118    -13.2959    0.5438    
1    354    122    -8724.95    17.786    3.84769    1.72859    -13.4483    0.563245    
1    362    123    -8724.11    16.7136    3.87844    1.72945    -13.1085    0.522984    
1    363    124    -8726.6    15.3381    3.81983    1.73409    -14.2633    0.499326    
1    368    125    -8727.01    15.8735    3.81829    1.73771    -14.2138    0.508642    
1    369    126    -8728.1    16.2575    3.8732    1.74169    -15.6644    0.486599    
1    370    127    -8729.4    15.8173    3.89677    1.73753    -14.948    0.469798    
1    373    128    -8726.72    15.0995    3.89991    1.74647    -14.4977    0.497339    
1    374    129    -8728.11    14.1548    3.87278    1.74408    -15.3235    0.471521    
1    377    130    -8727.62    14.976    3.87529    1.74091    -16.3468    0.496915    
1    378    131    -8731.07    15.6353    3.90676    1.73967    -18.504    0.488376    
1    388    132    -8731.28    15.0925    3.91699    1.74107    -18.3586    0.468111    
1    391    133    -8731.68    15.8045    3.91283    1.74091    -18.5515    0.485883    
1    395    134    -8731.86    15.5586    3.92349    1.74128    -17.1682    0.507316    
1    397    135    -8728.99    13.4921    4.10731    1.74163    -13.7504    0.475169    
1    398    136    -8726.15    13.6359    4.04557    1.74665    -9.87245    0.472153    
1    399    137    -8726.81    12.6712    4.02163    1.74872    -12.1262    0.490754    
1    402    138    -8726.76    12.3742    3.9922    1.75514    -9.73341    0.50871    
1    405    139    -8727.51    13.0766    4.01808    1.74892    -11.1052    0.480783    
1    408    140    -8728.06    12.1159    3.96877    1.75172    -13.777    0.441545    
1    410    141    -8729.33    11.9326    3.95696    1.74508    -12.9863    0.46297    
1    414    142    -8730.46    12.4277    3.91436    1.74539    -12.7022    0.470998    
1    430    143    -8726.05    12.1915    3.89793    1.74138    -7.12204    0.57756    
1    435    144    -8730.29    10.9314    3.83799    1.71904    -14.404    0.545687    
1    443    145    -8732.2    10.5187    3.80956    1.71232    -15.6678    0.505658    
1    450    146    -8733.06    9.17164    3.78371    1.73054    -17.2617    0.426281    
1    452    147    -8730.41    9.70863    3.93278    1.71757    -15.0297    0.475097    
1    454    148    -8732.01    10.2015    3.93115    1.70876    -17.4938    0.459484    
1    458    149    -8734.39    8.97614    3.85173    1.71113    -17.5998    0.437918    
1    460    150    -8738.64    6.36243    3.70138    1.75155    -26.9191    0.361013    
1    462    151    -8739.75    6.62311    3.82956    1.78486    -28.5479    0.357907    
1    472    152    -8741.23    6.9534    3.81204    1.75129    -27.5303    0.367395    
1    482    153    -8741.14    6.68532    3.8212    1.77116    -29.4203    0.349626    
1    484    154    -8739.8    6.52029    3.92428    1.79057    -29.2656    0.344167    
1    488    155    -8740.46    7.28497    3.79777    1.74079    -26.564    0.374688    
1    492    156    -8738.29    7.92793    3.75139    1.72813    -24.3407    0.394811    
1    520    157    -8738.68    7.24221    3.72425    1.71608    -23.4355    0.389688    
1    524    158    -8737.9    7.78865    3.69973    1.71976    -24.4236    0.399545    
1    529    159    -8735.85    7.74231    3.69252    1.67458    -23.1728    0.422261    
1    536    160    -8737.43    6.35467    3.70352    1.72276    -25.2163    0.345589    
1    537    161    -8732.42    5.1388    3.63286    1.7201    -22.4605    0.39737    
1    539    162    -8732.1    5.00406    3.58745    1.72268    -20.0611    0.431773    
1    544    163    -8732.59    5.03542    3.65545    1.73557    -20.2784    0.382816    
1    545    164    -8728.59    6.21791    3.7707    1.74139    -17.9855    0.444603    
1    546    165    -8727.86    6.00525    3.77555    1.72836    -18.2002    0.402098    
1    547    166    -8728.76    5.89699    3.76598    1.7175    -15.9238    0.458769    
1    560    167    -8726.8    6.09371    3.75947    1.71949    -12.3163    0.518821    
1    562    168    -8726.4    6.88581    3.69021    1.72053    -11.8882    0.515515    
1    565    169    -8728.36    6.00912    3.75268    1.71307    -18.4923    0.389385    
1    574    170    -8728.24    6.28018    3.59938    1.71978    -19.6919    0.361272    
1    575    171    -8724.93    9.88725    3.63143    1.71621    -20.7972    0.431802    
1    576    172    -8725.95    8.92932    3.66354    1.73015    -19.6944    0.405977    
1    577    173    -8726.84    6.78992    3.74896    1.74929    -26.4398    0.409915    
1    578    174    -8726.78    6.66035    3.82188    1.73502    -20.6504    0.454321    
1    579    175    -8724.51    6.55547    4.68249    4.82567    -26.26    0.377607    
1    581    176    -8721.78    7.68051    3.74266    1.73403    -25.0282    0.421479    
1    582    177    -8725.23    8.45495    3.78574    1.734    -28.5951    0.421356    
1    585    178    -8723.13    8.01747    3.7016    1.84031    -26.9408    0.393862    
1    586    179    -8720.78    7.31393    3.65188    1.77788    -21.0918    0.373604    
1    587    180    -8722.34    7.59805    3.68478    1.74462    -20.7277    0.467189    
1    588    181    -8722.52    6.50227    3.65171    1.75244    -20.1931    0.394803    
1    592    182    -8721.58    6.44766    3.66368    1.76741    -17.4695    0.424972    
1    593    183    -8716.88    5.87912    3.69653    1.77085    -16.6748    0.440541    
1    594    184    -8725.43    6.38052    3.7721    1.77024    -16.6263    0.453957    
1    602    185    -8722.03    7.42457    3.65978    1.75653    -16.365    0.469956    
1    603    186    -8721.33    8.63694    3.70108    1.74245    -13.1501    0.501499    
1    610    187    -8722.94    7.14684    3.59819    1.76717    -13.6801    0.426081    
1    611    188    -8723.25    6.49907    3.58493    1.76291    -14.2573    0.420854    
1    614    189    -8725.52    6.74207    3.59288    1.75865    -16.3746    0.428232    
1    615    190    -8725.45    6.03213    3.60974    1.75853    -13.9392    0.492007    
1    617    191    -8724.79    5.96425    3.58971    1.76461    -16.5624    0.536991    
1    618    192    -8725.11    5.76142    3.6194    1.76301    -15.5682    0.535861    
1    619    193    -8725.04    5.93666    3.63749    1.73197    -17.2276    0.538169    
1    621    194    -8726.09    5.90886    3.69528    1.75874    -15.3013    0.538136    
1    624    195    -8727.26    6.23243    3.65868    1.75916    -16.3914    0.521173    
1    625    196    -8725.88    3.90658    3.59356    1.76521    -15.8986    0.552011    
1    627    197    -8723.89    6.60729    3.58086    1.7501    -14.5836    0.48552    
1    629    198    -8725.26    6.19444    3.50693    1.75835    -17.5421    0.440829    
1    630    199    -8729.05    5.81117    3.50782    1.73629    -21.4634    0.408372    
1    631    200    -8727.01    5.38045    3.50827    1.82061    -19.386    0.451192    
1    632    201    -8731.08    6.46907    3.58307    1.73883    -20.9661    0.447403    
1    637    202    -8731.4    5.93449    3.53974    1.75461    -22.3275    0.399845    
1    640    203    -8729.3    5.76105    3.56856    1.7539    -19.414    0.436321    
1    642    204    -8727.55    5.65991    3.6285    1.74596    -15.8404    0.479664    
1    647    205    -8728.44    7.32178    3.63799    1.73079    -15.9204    0.474038    
1    648    206    -8727.5    7.64449    3.6883    1.73962    -15.2532    0.501027    
1    650    207    -8722.46    8.22059    3.65887    1.71302    -9.08972    0.560071    
1    651    208    -8725.04    7.68041    3.61    1.73237    -13.451    0.490011    
1    652    209    -8727.66    7.26595    3.64507    1.72374    -14.5264    0.51074    
1    658    210    -8729.92    8.50259    3.65282    1.72348    -17.9568    0.461515    
1    662    211    -8732.85    7.19001    3.50376    1.7179    -20.9725    0.413989    
1    667    212    -8733.03    8.60951    3.67438    1.73561    -21.4161    0.406055    
1    668    213    -8730.41    8.93045    3.66936    1.72619    -19.5357    0.403149    
1    669    214    -8736.38    8.79271    3.50552    1.74212    -24.1302    0.380417    
1    670    215    -8737.65    8.82332    3.42312    1.70887    -26.5169    0.323656    
1    674    216    -8734.72    7.71286    3.53693    1.74481    -23.4171    0.37228    
1    678    217    -8732.59    9.2064    3.47576    1.71204    -21.9317    0.406596    
1    680    218    -8732.66    9.28488    3.54472    1.76863    -21.8394    0.416204    
1    684    219    -8736.21    8.76078    3.44766    1.73333    -26.4532    0.365881    
1    685    220    -8734.5    8.23312    3.48761    1.74711    -22.5542    0.411715    
1    688    221    -8736.04    7.14764    3.46107    1.66246    -28.0235    0.344237    
1    689    222    -8736.64    8.07942    3.35134    1.74122    -26.3715    0.353305    
1    692    223    -8734.35    7.71781    3.45632    1.76279    -29.1308    0.315728    
1    693    224    -8734.12    8.12665    3.3027    1.74432    -25.8904    0.336932    
1    694    225    -8736.12    8.45048    3.308    1.73292    -24.0206    0.371296    
1    695    226    -8737.65    9.00139    3.33544    1.75126    -22.1563    0.399965    
1    704    227    -8738.59    8.1033    3.35875    1.7066    -25.3711    0.339785    
1    714    228    -8734.72    8.20881    3.25446    1.71321    -20.6305    0.425416    
1    716    229    -8732.56    7.28094    3.30901    1.74486    -16.3906    0.454101    
1    718    230    -8732.17    8.29724    3.3142    1.73946    -16.7847    0.448901    
1    721    231    -8733.81    10.82    3.56236    1.76101    -20.9115    0.400039    
1    723    232    -8731.64    12.9464    3.55805    1.76013    -16.5178    0.509739    
1    729    233    -8732.11    15.0351    3.44264    1.7611    -22.7417    0.392655    
1    734    234    -8730.48    14.6188    3.53584    1.7674    -18.5692    0.486813    
1    736    235    -8730.55    13.7897    3.58769    1.7585    -18.5878    0.410184    
1    737    236    -8732.37    13.9651    3.64456    1.74582    -23.3511    0.370068    
1    746    237    -8732.01    13.5646    3.6134    1.76931    -23.0454    0.380547    
1    748    238    -8729.35    14.6343    3.60377    1.75868    -18.4899    0.427514    
1    757    239    -8724.65    14.0307    3.51646    1.76764    -17.0462    0.420371    
1    758    240    -8724.83    14.2255    3.45677    1.75464    -14.9816    0.422339    
1    761    241    -8725.69    13.7208    3.39326    1.76373    -18.8129    0.455187    
1    763    242    -8725.96    14.7736    3.38877    1.75943    -20.818    0.46913    
1    766    243    -8725.77    14.8794    3.33545    1.7585    -18.7553    0.538409    
1    767    244    -8726.33    14.9893    3.3136    1.75991    -17.7677    0.519484    
1    776    245    -8725.79    14.5149    3.34134    1.75757    -17.5543    0.526911    
1    781    246    -8724.07    14.1635    3.28421    1.76075    -17.2749    0.508923    
1    783    247    -8724.89    12.3581    3.29857    1.75542    -16.0402    0.553159    
1    788    248    -8724.14    11.5906    3.35347    1.75208    -15.7849    0.472453    
1    790    249    -8724.11    11.6719    3.37379    1.75277    -15.9329    0.465296    
1    793    250    -8721.92    13.8062    3.25034    1.76124    -14.93    0.547469    
1    797    251    -8719.78    14.3261    3.23311    1.75178    -17.6655    0.54316    
1    800    252    -8718.29    14.6215    3.25159    1.74823    -15.3811    0.529731    
1    801    253    -8721.83    13.5808    3.54788    1.74497    -15.5024    0.504099    
1    803    254    -8722.23    12.9695    3.63678    1.74023    -15.504    0.471375    
1    806    255    -8718.87    12.9444    3.62811    1.74026    -12.3678    0.513132    
1    807    256    -8713.25    12.7458    3.60042    1.74301    -5.93487    0.518451    
1    808    257    -8718.82    14.0319    3.5901    1.74869    -6.87892    0.514877    
1    809    258    -8721.93    12.6068    3.65759    1.76486    -12.1369    0.498616    
1    810    259    -8722.19    12.1309    3.55507    1.74309    -10.8847    0.523033    
1    811    260    -8727.34    14.3732    3.55596    1.72952    -16.9206    0.428565    
1    813    261    -8730.38    14.9511    3.67868    1.73802    -22.969    0.399375    
1    816    262    -8730.06    14.3364    3.58471    1.7145    -21.7868    0.426612    
1    817    263    -8730.43    14.1569    3.75559    1.68238    -26.3746    0.382571    
1    818    264    -8731.72    13.9966    3.70919    1.70865    -27.5373    0.33297    
1    821    265    -8731.95    15.321    3.72053    1.7115    -25.7711    0.370323    
1    826    266    -8733.93    15.526    3.66608    1.71387    -25.2368    0.403919    
1    829    267    -8734.29    15.5743    3.69061    1.7226    -27.7876    0.386672    
1    830    268    -8738.96    15.0382    3.80602    1.7124    -30.6934    0.344499    
1    838    269    -8738.93    15.0103    3.79716    1.70969    -31.3365    0.317446    
1    840    270    -8738.25    15.101    3.83428    1.69743    -30.845    0.325811    
1    841    271    -8740.11    14.8857    3.94121    1.70386    -32.7593    0.301026    
1    846    272    -8738.92    14.8307    3.94982    1.69183    -33.347    0.297208    
1    853    273    -8737.61    15.3041    4.05141    1.69539    -31.2403    0.320005    
1    860    274    -8737.97    14.9248    4.17594    1.6895    -34.413    0.288845    
1    861    275    -8739.48    14.9621    4.18555    1.70694    -35.1193    0.300543    
1    862    276    -8740.33    14.9569    4.15388    1.69225    -33.8178    0.303612    
1    877    277    -8740.37    13.8749    4.22296    1.71688    -32.6006    0.313287    
1    882    278    -8736.61    13.5856    4.14901    1.7094    -33.274    0.297461    
1    884    279    -8736    13.8848    3.82451    1.73098    -26.5184    0.358124    
1    890    280    -8737.24    14.0447    3.75992    1.72036    -26.3824    0.356854    
1    902    281    -8737.95    13.9479    3.78894    1.70365    -29.6533    0.302838    
1    912    282    -8737.75    13.836    3.86216    1.70824    -35.0651    0.280406    
1    916    283    -8740.37    14.3357    3.64177    1.7127    -29.2014    0.333458    
1    926    284    -8734.8    13.9376    3.69971    1.71843    -28.7848    0.323085    
1    929    285    -8738.55    16.1853    3.75117    1.71807    -27.7185    0.354332    
1    946    286    -8735.48    16.1358    3.70597    1.74504    -23.1551    0.379456    
1    949    287    -8735.23    14.5358    3.96142    1.72855    -28.0053    0.363128    
1    957    288    -8733.82    16.2606    3.98252    1.70592    -27.7501    0.40658    
1    960    289    -8734.63    15.9001    3.88323    1.6945    -28.2609    0.414262    
1    961    290    -8734.93    15.0426    3.7351    1.73789    -28.937    0.373489    
1    962    291    -8732.89    14.9946    3.73079    1.73343    -27.5536    0.372392    
1    969    292    -8733.39    15.6264    3.65687    1.75047    -28.7982    0.371254    
1    970    293    -8735.06    15.6501    3.69996    1.74702    -29.3054    0.363024    
1    981    294    -8734.27    15.8413    3.57691    1.7315    -30.7205    0.358042    
1    985    295    -8727.23    14.1043    3.52095    1.70603    -35.6863    0.313064    
1    986    296    -8735.8    14.1244    3.43442    1.71331    -36.2736    0.311142    
1    992    297    -8735.93    13.9809    3.46042    1.71608    -38.2235    0.281673    
1    994    298    -8736.37    13.7317    3.52451    1.7054    -35.8795    0.280048    
1    996    299    -8738.06    14.3668    3.53638    1.71687    -35.3153    0.303642    
