#Task    Step    numberOfAcceptedPeleSteps    currentEnergy    S-lig    S-H    D-H    Binding Energy    sasaLig    
1    0    0    -7487.96    5.69829    2.38696    1.8777    -25.3549    0.414831    
1    1    1    -8652.71    8.54066    3.5462    1.76933    -25.5413    0.420553    
1    3    2    -8652.46    7.1308    3.86208    1.7535    -16.578    0.439657    
1    4    3    -8655.39    7.14016    3.84181    1.78763    -19.8944    0.417799    
1    5    4    -8663.25    8.29856    3.72884    1.78037    -21.2651    0.448002    
1    6    5    -8669.76    8.04036    3.58127    1.7948    -20.8577    0.447809    
1    7    6    -8673.76    8.62775    3.62363    1.78231    -15.8777    0.432451    
1    8    7    -8673.1    8.71961    3.64403    1.78685    -11.9417    0.520203    
1    9    8    -8675.08    9.02222    3.63284    1.80863    -10.2677    0.569255    
1    11    9    -8680.84    8.72332    3.73955    1.77901    -13.0852    0.566569    
1    13    10    -8685.36    9.35616    3.68187    1.79341    -16.4729    0.506683    
1    17    11    -8683.56    9.26265    3.69377    1.74857    -15.8971    0.522469    
1    20    12    -8691.2    8.85266    3.58717    1.78004    -16.9895    0.516152    
1    22    13    -8694.67    9.16475    3.59548    1.80712    -17.4538    0.484168    
1    25    14    -8692.87    8.42452    3.67416    1.79748    -15.3756    0.518637    
1    26    15    -8697.11    7.92813    3.6759    1.77079    -16.3984    0.498068    
1    27    16    -8694.94    9.04146    3.66862    1.76186    -14.6035    0.532233    
1    29    17    -8692.22    9.45678    3.72581    1.76673    -14.4356    0.523415    
1    31    18    -8694.47    8.58891    3.73937    1.76798    -17.8637    0.453065    
1    32    19    -8698.8    9.0215    3.75826    1.74998    -20.6023    0.425228    
1    37    20    -8695.26    5.53515    3.77557    1.80008    -17.3684    0.43674    
1    38    21    -8704.21    5.96748    3.79838    1.81344    -18.0658    0.353067    
1    40    22    -8702.83    5.97628    3.9702    1.83306    -19.2425    0.329521    
1    42    23    -8706.6    5.63871    3.64592    1.76291    -23.5523    0.345721    
1    48    24    -8704.35    6.4666    3.65251    1.76572    -17.0089    0.374923    
1    50    25    -8704.73    6.40435    3.86141    1.76531    -14.6007    0.413725    
1    51    26    -8707.12    8.74904    3.80733    1.74043    -16.8996    0.486831    
1    54    27    -8706.95    7.58742    3.77271    1.73726    -14.1196    0.539249    
1    55    28    -8709.53    8.42061    3.79227    1.77228    -13.9323    0.475869    
1    57    29    -8708.73    9.58428    3.76304    1.75501    -17.2166    0.459902    
1    58    30    -8712.57    8.48332    3.77581    1.77449    -21.9182    0.403331    
1    61    31    -8708.98    8.53253    3.83547    1.75071    -16.8196    0.396674    
1    62    32    -8703.34    7.25243    3.84812    1.77775    -8.29005    0.492964    
1    63    33    -8705.44    7.42712    3.89814    1.74984    -11.6708    0.56355    
1    64    34    -8710.07    8.0456    3.87201    1.78783    -15.1948    0.518064    
1    67    35    -8710.7    8.83387    3.90202    1.76719    -16.0038    0.471514    
1    70    36    -8711    9.30306    3.86536    1.77711    -15.3555    0.475779    
1    71    37    -8714.75    7.70737    3.83192    1.7342    -20.5701    0.444861    
1    73    38    -8718.78    9.03688    3.88482    1.75925    -27.125    0.434889    
1    74    39    -8722.52    8.89365    3.81041    1.75697    -29.3156    0.412086    
1    76    40    -8722.19    9.39428    3.8127    1.74179    -28.6193    0.44721    
1    88    41    -8723.91    8.97452    3.64398    1.74183    -31.0897    0.413924    
1    90    42    -8720.57    8.63212    3.66629    1.74962    -26.9682    0.410093    
1    92    43    -8723.54    8.94282    3.65758    1.74941    -29.0367    0.441249    
1    109    44    -8724.13    9.95806    3.73728    1.78346    -27.522    0.443379    
1    116    45    -8726.64    9.46869    3.71388    1.76646    -29.9235    0.405768    
1    124    46    -8729.61    9.01016    3.66297    1.7582    -29.8951    0.417303    
1    145    47    -8729.1    9.4807    3.67613    1.75993    -28.7158    0.441887    
1    162    48    -8728.53    10.4125    3.69995    1.76485    -25.95    0.456635    
1    164    49    -8721.79    11.5494    3.70262    1.76177    -21.5949    0.453758    
1    166    50    -8716.49    12.0929    3.71626    1.76163    -16.9444    0.56183    
1    167    51    -8715.66    12.8932    3.73464    1.76091    -10.9769    0.648838    
1    168    52    -8715.7    12.6822    3.77036    1.76159    -10.7703    0.667046    
1    169    53    -8718.07    11.1192    3.88138    1.77178    -14.0944    0.570337    
1    170    54    -8718.25    11.1838    3.90095    1.77328    -16.7941    0.562714    
1    172    55    -8720.96    10.1575    3.92287    1.77343    -16.9089    0.551573    
1    174    56    -8713.16    9.79076    3.92287    1.77343    -9.18725    0.634668    
1    176    57    -8716.78    10.0809    3.95588    1.77334    -15.4263    0.558133    
1    177    58    -8716.97    14.0576    3.99789    1.79405    -15.5378    0.623676    
1    178    59    -8718.11    13.2105    4.05465    1.7753    -16.0559    0.624453    
1    179    60    -8720.95    11.6226    4.06634    1.77439    -18.644    0.5686    
1    180    61    -8721.72    11.0448    4.04712    1.77438    -16.8986    0.559201    
1    182    62    -8722.53    11.7871    4.02421    1.77472    -16.8556    0.569234    
1    184    63    -8721.63    11.2067    4.00199    1.77539    -15.5884    0.564644    
1    185    64    -8720.08    9.42109    4.04925    1.76971    -12.8171    0.567498    
1    186    65    -8719.43    9.78216    4.01736    1.76884    -14.1636    0.592264    
1    187    66    -8716.33    11.0586    4.02617    1.76929    -13.6889    0.641    
1    189    67    -8716.3    10.4796    4.0958    1.76508    -14.9013    0.643985    
1    190    68    -8717.83    8.59177    4.08172    1.7695    -14.5906    0.558174    
1    192    69    -8723.25    7.62477    4.06099    1.77309    -19.6568    0.520203    
1    193    70    -8719.04    6.31776    4.20124    1.7703    -16.001    0.555804    
1    194    71    -8720.53    5.27841    4.06786    1.76108    -17.3894    0.542428    
1    196    72    -8721.45    5.5898    3.90841    1.797    -17.5441    0.536025    
1    201    73    -8720.33    6.49538    3.85035    1.77638    -15.4981    0.570138    
1    202    74    -8718.92    6.55942    3.83555    1.78657    -14.6202    0.57491    
1    203    75    -8719.09    7.48014    3.8585    1.72193    -14.0057    0.639186    
1    204    76    -8719.5    7.87608    3.86804    1.7856    -13.1117    0.657579    
1    205    77    -8717.96    6.88128    3.82343    1.77393    -14.3906    0.633654    
1    207    78    -8716.75    9.22471    3.85968    1.77224    -13.8193    0.589543    
1    208    79    -8716.99    10.4999    3.84929    1.77097    -10.524    0.674172    
1    209    80    -8716.4    10.8789    3.76951    1.77483    -12.8109    0.656594    
1    211    81    -8716.53    10.8803    3.77955    1.77148    -13.2455    0.581477    
1    212    82    -8719.22    10.3233    3.82857    1.76837    -15.2283    0.543349    
1    213    83    -8721.4    8.04656    3.77874    1.77164    -13.8206    0.577709    
1    214    84    -8722.71    7.04588    3.75837    1.77481    -15.8791    0.567192    
1    215    85    -8721.48    6.55381    3.67936    1.77065    -12.9036    0.567948    
1    216    86    -8720.04    6.09531    3.6536    1.76153    -11.9165    0.495097    
1    217    87    -8724.21    7.18624    3.59308    1.75917    -16.3989    0.51844    
1    218    88    -8723.3    8.18565    3.66003    1.77452    -15.9902    0.521196    
1    219    89    -8719.26    12.2676    3.66007    1.76874    -16.0571    0.605168    
1    220    90    -8726.03    11.6181    3.64509    1.76395    -21.159    0.536055    
1    221    91    -8726.28    11.6179    3.6488    1.76259    -19.8599    0.545736    
1    222    92    -8718.34    10.647    3.6547    1.77032    -10.8321    0.525147    
1    223    93    -8724.49    13.5012    3.64576    1.77365    -14.7511    0.635028    
1    225    94    -8729.67    13.9676    3.65561    1.76941    -18.2022    0.612366    
1    226    95    -8732.51    12.5603    3.659    1.76986    -19.2258    0.601177    
1    229    96    -8730.01    11.0256    3.65864    1.76967    -17.9164    0.6199    
1    230    97    -8731.1    11.3406    3.64655    1.76714    -18.5617    0.593711    
1    232    98    -8729.15    11.2298    3.63953    1.76658    -15.9409    0.644364    
1    233    99    -8725.6    13.0607    3.63903    1.76522    -15.6923    0.654003    
1    234    100    -8725.35    13.5563    3.64073    1.76601    -13.6151    0.694009    
1    236    101    -8730.59    12.4566    3.64203    1.76534    -16.5736    0.649384    
1    239    102    -8731.15    11.3277    3.63054    1.76185    -18.8763    0.551252    
1    240    103    -8730.13    11.9945    3.62925    1.76677    -17.1979    0.589836    
1    246    104    -8731.64    11.5044    3.65393    1.76391    -21.1091    0.540454    
1    252    105    -8733.32    11.3334    3.63962    1.76272    -21.1006    0.521616    
1    254    106    -8734.35    11.0651    3.6076    1.76246    -21.6123    0.50627    
1    258    107    -8731.19    10.8431    3.58488    1.76842    -22.225    0.502002    
1    259    108    -8729.21    13.59    3.5798    1.76586    -20.1487    0.559729    
1    260    109    -8726.82    14.7158    3.5963    1.76492    -16.0862    0.635995    
1    265    110    -8733.18    12.8664    3.69572    1.76236    -18.165    0.610237    
1    268    111    -8731.74    14.3088    3.70167    1.76385    -16.0335    0.645841    
1    270    112    -8732.52    14.8949    3.6888    1.76202    -16.5565    0.635492    
1    271    113    -8732.07    15.4454    3.68534    1.76146    -18.0705    0.623564    
1    276    114    -8728.26    14.9848    3.67013    1.75979    -15.0798    0.646245    
1    278    115    -8729.33    14.2862    3.6765    1.75978    -16.4371    0.651581    
1    280    116    -8729.31    14.8142    3.67399    1.75946    -15.8721    0.648404    
1    282    117    -8728.88    13.5514    3.67439    1.75886    -15.1447    0.669125    
1    284    118    -8731.45    13.7352    3.67504    1.75781    -17.3751    0.639019    
1    285    119    -8729.09    14.3223    3.71171    1.75539    -15.6145    0.598211    
1    286    120    -8729.04    14.8198    3.69421    1.76207    -13.6008    0.600115    
1    290    121    -8729.08    14.9926    3.69978    1.76027    -12.3754    0.588705    
1    292    122    -8727.95    15.7812    3.68986    1.76027    -11.5127    0.644001    
1    294    123    -8727.72    15.0676    3.70442    1.75902    -11.1175    0.643512    
1    295    124    -8729.64    15.1787    3.69575    1.75854    -13.7156    0.588456    
1    296    125    -8728.57    16.4261    3.68425    1.758    -13.827    0.621904    
1    299    126    -8728.37    14.1153    3.68319    1.75745    -14.073    0.590384    
1    301    127    -8726.57    14.5156    3.70116    1.76545    -12.5691    0.619356    
1    302    128    -8725.85    15.3364    3.69655    1.76322    -11.1105    0.618451    
1    303    129    -8725.89    14.7522    3.6697    1.76119    -13.0872    0.625582    
1    308    130    -8722.15    12.7865    3.66193    1.76086    -10.5017    0.656539    
1    309    131    -8724.3    12.07    3.78206    1.7683    -12.2675    0.652662    
1    310    132    -8727.44    11.5884    3.78688    1.76807    -13.3894    0.616585    
1    311    133    -8731.27    10.7348    3.7683    1.76702    -17.4375    0.536208    
1    314    134    -8729.37    11.177    3.76315    1.76657    -15.7836    0.532602    
1    316    135    -8731.86    11.3023    3.76351    1.76658    -21.7303    0.496094    
1    317    136    -8734.08    10.7545    3.80897    1.77006    -19.434    0.535839    
1    322    137    -8734.56    11.0708    3.76004    1.76822    -19.9213    0.561342    
1    331    138    -8734.68    11.0957    3.74322    1.76743    -20.2849    0.521976    
1    339    139    -8732.32    8.59483    3.76759    1.76722    -15.7013    0.565547    
1    340    140    -8737.47    9.44817    3.67571    1.76356    -20.9905    0.530948    
1    341    141    -8738.51    9.8796    3.6543    1.76588    -19.3223    0.523632    
1    342    142    -8741.55    10.1047    3.5999    1.76123    -19.6024    0.528253    
1    343    143    -8739.43    10.751    3.60335    1.76167    -18.5435    0.554374    
1    347    144    -8740.26    10.7609    3.60976    1.76205    -19.3767    0.553717    
1    349    145    -8739.92    12.2754    3.6106    1.76541    -21.3998    0.522628    
1    354    146    -8734.83    13.0636    3.6045    1.75977    -16.184    0.564011    
1    355    147    -8734.66    11.3334    3.5953    1.75999    -17.8441    0.577599    
1    358    148    -8735.82    11.1923    3.5852    1.75773    -16.3206    0.592641    
1    359    149    -8738.2    13.0693    3.59593    1.75731    -13.4555    0.563176    
1    360    150    -8736.42    12.5233    3.6119    1.75528    -12.3539    0.557906    
1    361    151    -8740.06    10.2902    3.6834    1.75791    -18.4192    0.553394    
1    362    152    -8741.68    10.469    3.75953    1.75201    -20.8411    0.537961    
1    369    153    -8738.52    11.1646    3.85477    1.75212    -16.9941    0.520146    
1    372    154    -8738.01    11.4464    3.85849    1.75304    -16.8465    0.524629    
1    375    155    -8737.93    12.3756    3.93429    1.74904    -17.7843    0.531145    
1    377    156    -8738.61    12.7993    4.04624    1.7405    -19.3638    0.517375    
1    378    157    -8737.64    13.5951    4.06605    1.74017    -18.4174    0.536492    
1    379    158    -8736.32    13.6742    4.08069    1.74319    -13.0865    0.568094    
1    380    159    -8736.2    12.6329    4.08438    1.74265    -15.9456    0.511483    
1    381    160    -8736.82    10.3526    3.67688    1.75612    -18.1739    0.514143    
1    387    161    -8729.02    10.8867    3.67518    1.75173    -9.72762    0.571036    
1    389    162    -8734.5    10.3384    3.371    1.75761    -17.8743    0.520223    
1    399    163    -8734.81    10.068    3.42423    1.75396    -16.8943    0.512324    
1    401    164    -8733.34    11.2689    3.36685    1.75303    -17.955    0.550459    
1    402    165    -8732.56    12.2137    3.3691    1.75278    -16.6617    0.600637    
1    404    166    -8733.83    11.6437    3.44225    1.75143    -14.3046    0.579129    
1    405    167    -8736.11    10.4636    3.28839    1.74368    -19.9591    0.537412    
1    408    168    -8739.86    10.2836    3.33641    1.75974    -18.7873    0.548568    
1    409    169    -8742.33    9.79751    3.52037    1.75876    -20.3884    0.50856    
1    410    170    -8744.53    9.43208    3.58743    1.75977    -18.712    0.492084    
1    412    171    -8745.42    9.3987    3.64817    1.76161    -19.2775    0.48736    
1    416    172    -8746.44    10.1471    3.66822    1.76294    -20.5461    0.502037    
1    429    173    -8745.24    11.9359    3.68222    1.76514    -16.9214    0.545828    
1    431    174    -8744.19    12.1216    3.69147    1.76758    -15.5823    0.532248    
1    432    175    -8743.9    11.8012    3.78436    1.7683    -16.2837    0.543684    
1    434    176    -8742.35    11.8054    3.85058    1.76551    -15.986    0.559744    
1    435    177    -8739.21    12.8359    3.86369    1.76663    -10.9762    0.593928    
1    437    178    -8738.47    15.4777    3.82054    1.76845    -10.3294    0.629374    
1    441    179    -8734.8    16.4257    3.70996    1.77078    -11.2832    0.590827    
1    442    180    -8737.86    15.248    3.74946    1.77014    -11.0934    0.585311    
1    444    181    -8736.02    15.3742    3.77986    1.76907    -9.81354    0.589418    
1    446    182    -8738.14    15.6114    3.79859    1.76787    -9.97632    0.616868    
1    447    183    -8738.84    13.0918    3.80398    1.76771    -9.82466    0.573752    
1    452    184    -8743.79    13.7396    3.81338    1.76767    -14.2115    0.536862    
1    455    185    -8741.28    14.907    3.81535    1.76724    -12.326    0.539323    
1    457    186    -8737.9    15.0655    3.75471    1.76713    -12.1809    0.568469    
1    458    187    -8733.14    16.1557    3.75545    1.76639    -12.249    0.601558    
1    459    188    -8733.5    14.3869    3.77355    1.76385    -4.48728    0.556102    
1    460    189    -8743.89    16.0332    3.80962    1.76496    -18.7751    0.546218    
1    465    190    -8742.94    16.6548    3.69083    1.76572    -13.8319    0.555489    
1    478    191    -8742.38    17.0476    3.72078    1.76647    -15.5838    0.545506    
1    480    192    -8742.64    17.2573    3.74897    1.76672    -16.5821    0.550154    
1    483    193    -8740.3    15.97    3.76292    1.76789    -15.4342    0.571216    
1    485    194    -8737.04    17.0208    3.87308    1.76279    -11.733    0.611366    
1    488    195    -8735.37    17.6022    3.85874    1.76315    -14.5311    0.564866    
1    489    196    -8737.81    16.3978    3.95385    1.76139    -18.5573    0.598017    
1    497    197    -8735.22    15.721    3.95416    1.76126    -13.8023    0.591436    
1    499    198    -8740.17    15.5792    3.95274    1.76107    -15.7869    0.605664    
1    503    199    -8741.95    15.7963    3.96141    1.75941    -20.9299    0.549695    
1    508    200    -8740.9    15.6005    3.9628    1.76371    -19.8114    0.553865    
1    511    201    -8739.76    15.0869    3.98838    1.74766    -16.4803    0.582147    
1    514    202    -8739.4    15.8492    3.98461    1.75011    -13.9126    0.625672    
1    515    203    -8736.07    17.5424    3.96389    1.75669    -9.95677    0.68238    
1    517    204    -8737.4    16.8802    3.95257    1.76707    -12.1765    0.686895    
1    518    205    -8739.31    16.3688    3.95511    1.76359    -12.0341    0.68745    
1    521    206    -8736.88    17.1802    3.90613    1.7619    -12.2981    0.691038    
1    522    207    -8736.04    18.1504    3.90263    1.76503    -9.30238    0.651127    
1    526    208    -8738.92    17.3003    3.89944    1.76524    -11.8817    0.665797    
1    527    209    -8740.89    16.321    3.9145    1.76997    -14.0096    0.628019    
1    530    210    -8739.71    16.6229    3.90682    1.76273    -14.5921    0.566107    
1    532    211    -8738.78    17.3526    3.92162    1.76237    -13.0882    0.612833    
1    533    212    -8738.48    16.4361    3.8399    1.7637    -13.5959    0.601874    
1    535    213    -8738.31    12.6252    3.84509    1.76483    -12.2592    0.645654    
1    536    214    -8737.21    11.665    3.85994    1.76486    -10.1392    0.670845    
1    537    215    -8736.09    10.3308    3.7877    1.76357    -15.1441    0.635782    
1    540    216    -8737.68    9.78257    3.81142    1.76548    -16.4917    0.583971    
1    547    217    -8739.11    10.0335    3.85035    1.75659    -15.4669    0.627247    
1    552    218    -8738.41    8.80577    3.85319    1.77347    -18.78    0.543033    
1    553    219    -8738.94    9.02398    3.68222    1.76958    -16.7565    0.532818    
1    555    220    -8736.71    6.47836    3.66119    1.66493    -15.0367    0.563915    
1    557    221    -8736.46    7.37854    3.42752    1.79971    -17.0184    0.536538    
1    559    222    -8740.02    7.10412    3.3918    1.77303    -19.0083    0.509422    
1    560    223    -8739.57    6.98856    3.40304    1.77657    -19.0335    0.499953    
1    561    224    -8741.07    7.29035    3.54236    1.75994    -18.5223    0.525281    
1    565    225    -8738.29    7.3435    3.59266    1.76835    -17.3892    0.541858    
1    570    226    -8737.78    7.64675    3.65245    1.77202    -15.463    0.556775    
1    571    227    -8740.27    6.54623    3.63881    1.77483    -16.6399    0.53876    
1    573    228    -8739.42    7.17221    3.7902    1.78311    -15.5603    0.532238    
1    574    229    -8741.95    6.31906    3.70133    1.77319    -19.0992    0.472144    
1    576    230    -8744.91    6.60012    3.47146    1.7798    -21.4565    0.490119    
1    577    231    -8742.98    6.44408    3.5923    1.76417    -21.2802    0.499406    
1    579    232    -8742.03    10.685    3.65505    1.75059    -21.1572    0.580186    
1    585    233    -8745.27    10.57    4.01077    1.75749    -21.2552    0.571061    
1    610    234    -8746.05    10.2444    4.022    1.76112    -21.7303    0.568249    
1    617    235    -8743.28    10.6403    4.07445    1.75533    -20.8616    0.57498    
1    622    236    -8744.94    10.7516    4.01106    1.75773    -21.4662    0.571093    
1    629    237    -8744.89    9.97503    4.11682    1.75148    -21.3214    0.573645    
1    630    238    -8741.8    9.81945    4.116    1.75114    -20.0874    0.563945    
1    631    239    -8741.65    11.0349    4.10613    1.74899    -19.9755    0.575103    
1    632    240    -8743.61    10.6633    4.02902    1.74885    -22.2668    0.551425    
1    634    241    -8736.23    11.7506    4.02093    1.7498    -15.4423    0.611933    
1    635    242    -8743.02    10.2907    4.03371    1.74852    -14.6182    0.562714    
1    637    243    -8748.54    10.1564    4.06978    1.74882    -17.7188    0.56623    
1    645    244    -8745.69    10.705    3.93783    1.75536    -18.4618    0.543988    
1    647    245    -8745.66    10.2123    3.93138    1.7555    -16.5883    0.606272    
1    649    246    -8747.72    8.25023    3.87136    1.75561    -22.3179    0.410563    
1    654    247    -8745.22    8.48962    3.86244    1.75701    -22.0241    0.39508    
1    656    248    -8749.07    8.18875    3.83255    1.75805    -22.0897    0.420552    
1    658    249    -8748.36    8.39059    3.82643    1.75929    -21.9316    0.408056    
1    660    250    -8745.65    9.42274    3.83158    1.75874    -17.7869    0.420171    
1    664    251    -8747.74    9.32775    3.81877    1.75872    -21.6975    0.40969    
1    669    252    -8747.57    9.86507    3.74707    1.76094    -21.5397    0.435789    
1    670    253    -8746.22    10.1369    3.73154    1.75985    -19.1057    0.445254    
1    674    254    -8748.87    9.78426    3.73473    1.75901    -20.642    0.430409    
1    678    255    -8746.17    8.97935    3.72834    1.75871    -18.1267    0.444995    
1    681    256    -8745.31    8.10922    3.60685    1.76103    -25.0135    0.481264    
1    690    257    -8743.85    7.89916    3.60159    1.76192    -26.0244    0.492154    
1    693    258    -8745.03    10.803    3.51812    1.72822    -24.583    0.519738    
1    694    259    -8748.93    11.4479    3.5418    1.75859    -23.7593    0.529588    
1    696    260    -8745.63    11.7252    3.61037    1.75904    -20.9763    0.547842    
1    697    261    -8748.54    11.8465    3.62602    1.76276    -14.5222    0.544741    
1    701    262    -8745.58    12.6941    3.63722    1.76325    -12.4399    0.575585    
1    702    263    -8746.67    12.4297    3.66546    1.76257    -11.6061    0.614607    
1    703    264    -8750.92    11.8266    3.71048    1.76207    -15.9412    0.525555    
1    704    265    -8749.98    11.7132    3.69958    1.76188    -13.5468    0.577549    
1    706    266    -8749.87    12.3003    3.68995    1.762    -12.9645    0.589025    
1    712    267    -8748.11    11.455    3.68487    1.76213    -14.1845    0.551189    
1    713    268    -8751.5    12.1694    3.66547    1.76682    -17.5713    0.510069    
1    716    269    -8751.35    11.626    3.67979    1.76715    -15.6995    0.478336    
1    729    270    -8750.76    11.5431    3.61107    1.76973    -18.0825    0.482814    
1    730    271    -8752.94    11.2761    3.6371    1.76791    -20.0353    0.477507    
1    732    272    -8756.01    11.3849    3.64364    1.76786    -19.824    0.487203    
1    738    273    -8754.55    11.0834    3.63507    1.76658    -18.9284    0.516834    
1    742    274    -8755.24    11.0994    3.61867    1.76837    -21.2135    0.472871    
1    744    275    -8755.06    10.7937    3.54385    1.76916    -23.6878    0.466157    
1    754    276    -8755.56    10.152    3.51348    1.76884    -27.2105    0.426202    
1    756    277    -8755.83    10.1502    3.59212    1.76877    -25.9199    0.414321    
1    760    278    -8760.41    11.3185    3.58727    1.76424    -25.4479    0.456157    
1    762    279    -8759.57    11.4549    3.63036    1.76301    -22.398    0.476854    
1    763    280    -8764.29    10.7955    3.64471    1.76303    -22.8169    0.428882    
1    769    281    -8764.67    9.78385    3.69568    1.76262    -26.0365    0.451061    
1    770    282    -8763.72    9.6028    3.67034    1.76224    -25.4214    0.445532    
1    773    283    -8762.6    10.0082    3.77482    1.76169    -25.3563    0.474814    
1    780    284    -8760.14    10.5986    3.79125    1.76257    -21.8715    0.482139    
1    782    285    -8759.53    10.769    3.80481    1.76172    -20.426    0.469894    
1    787    286    -8759.32    10.6981    3.80394    1.76073    -18.8344    0.468398    
1    788    287    -8761.24    10.5074    3.81019    1.76033    -19.0152    0.45846    
1    789    288    -8762.16    10.3515    3.87144    1.75715    -21.2765    0.457203    
1    793    289    -8762.19    6.37449    3.95099    1.7608    -29.1054    0.359681    
1    796    290    -8761.79    5.66578    3.83031    1.76825    -29.2905    0.344053    
1    805    291    -8763.04    6.7921    3.96864    1.7536    -27.2273    0.361148    
1    809    292    -8762.71    5.32251    3.9825    1.74727    -30.8517    0.328159    
1    816    293    -8756.28    4.76711    4.19295    1.70814    -26.882    0.299505    
1    817    294    -8757.87    5.00705    4.24388    1.72836    -25.4934    0.365259    
1    827    295    -8757.61    5.2911    4.14893    1.71085    -23.5709    0.38213    
1    829    296    -8760.05    6.3953    4.26502    1.73036    -28.0433    0.345949    
1    830    297    -8761.16    6.75409    4.2393    1.74303    -28.1483    0.320418    
1    837    298    -8762.66    6.0623    4.25664    1.77211    -29.6953    0.327632    
1    842    299    -8759.57    6.06932    4.19691    1.73724    -26.8784    0.319267    
1    846    300    -8759.01    5.38829    4.59474    1.74952    -26.8611    0.30532    
1    849    301    -8756.94    4.92485    7.98968    5.64929    -25.1808    0.385743    
1    850    302    -8760.6    5.66844    7.96276    5.66421    -27.1558    0.391777    
1    852    303    -8764.23    5.6227    7.94427    5.66727    -30.0153    0.378443    
1    860    304    -8768.07    5.51252    7.84565    5.69558    -30.5761    0.376412    
1    862    305    -8767.03    5.75118    7.72157    5.73636    -30.6175    0.376926    
1    870    306    -8766.78    5.65208    6.37783    6.34261    -30.9089    0.374895    
1    918    307    -8765.12    6.16987    6.3356    6.34    -28.3932    0.388255    
1    942    308    -8765.32    5.19389    6.29372    6.33625    -29.4361    0.360497    
1    950    309    -8765.88    5.37505    6.29839    6.33569    -30.7295    0.362871    
1    956    310    -8765.3    5.56714    6.27822    6.32931    -30.3254    0.360473    
1    980    311    -8766.07    5.59607    6.3364    6.33276    -30.9052    0.370529    
1    986    312    -8766.69    5.53364    6.34389    6.34081    -31.3969    0.370744    
1    988    313    -8765.73    5.59066    6.32322    6.33869    -31.1085    0.369431    
1    989    314    -8762.39    10.4108    6.22603    6.32631    -23.1507    0.415444    
1    994    315    -8760.78    10.7672    6.21648    6.32942    -20.4478    0.441928    
